# E (eV)  ldosup(E)  ldosdw(E) pdosup(E)  pdosdw(E) 
 -13.153 -0.139E-04 -0.140E-04 -0.139E-04 -0.140E-04
 -13.103 -0.936E-04 -0.939E-04 -0.936E-04 -0.939E-04
 -13.053 -0.462E-03 -0.463E-03 -0.462E-03 -0.463E-03
 -13.003 -0.163E-02 -0.163E-02 -0.163E-02 -0.163E-02 
 -12.953 -0.389E-02 -0.390E-02 -0.389E-02 -0.390E-02
 -12.903 -0.510E-02 -0.509E-02 -0.510E-02 -0.509E-02
 -12.853  0.188E-02  0.191E-02  0.188E-02  0.191E-02
 -12.803  0.259E-01  0.260E-01  0.259E-01  0.260E-01
 -12.753  0.669E-01  0.670E-01  0.669E-01  0.670E-01
 -12.703  0.110E+00  0.110E+00  0.110E+00  0.110E+00
 -12.653  0.139E+00  0.139E+00  0.139E+00  0.139E+00
 -12.603  0.148E+00  0.148E+00  0.148E+00  0.148E+00
 -12.553  0.146E+00  0.146E+00  0.146E+00  0.146E+00
 -12.503  0.141E+00  0.141E+00  0.141E+00  0.141E+00
 -12.453  0.138E+00  0.138E+00  0.138E+00  0.138E+00
 -12.403  0.136E+00  0.136E+00  0.136E+00  0.136E+00
 -12.353  0.134E+00  0.134E+00  0.134E+00  0.134E+00
 -12.303  0.133E+00  0.133E+00  0.133E+00  0.133E+00
 -12.253  0.131E+00  0.131E+00  0.131E+00  0.131E+00
 -12.203  0.130E+00  0.130E+00  0.130E+00  0.130E+00
 -12.153  0.129E+00  0.129E+00  0.129E+00  0.129E+00
 -12.103  0.128E+00  0.128E+00  0.128E+00  0.128E+00
 -12.053  0.127E+00  0.127E+00  0.127E+00  0.127E+00
 -12.003  0.126E+00  0.126E+00  0.126E+00  0.126E+00
 -11.953  0.126E+00  0.126E+00  0.126E+00  0.126E+00
 -11.903  0.125E+00  0.125E+00  0.125E+00  0.125E+00
 -11.853  0.125E+00  0.125E+00  0.125E+00  0.125E+00
 -11.803  0.124E+00  0.124E+00  0.124E+00  0.124E+00
 -11.753  0.124E+00  0.124E+00  0.124E+00  0.124E+00
 -11.703  0.123E+00  0.123E+00  0.123E+00  0.123E+00
 -11.653  0.123E+00  0.123E+00  0.123E+00  0.123E+00
 -11.603  0.123E+00  0.123E+00  0.123E+00  0.123E+00
 -11.553  0.123E+00  0.123E+00  0.123E+00  0.123E+00
 -11.503  0.123E+00  0.123E+00  0.123E+00  0.123E+00
 -11.453  0.123E+00  0.123E+00  0.123E+00  0.123E+00
 -11.403  0.124E+00  0.124E+00  0.124E+00  0.124E+00
 -11.353  0.124E+00  0.124E+00  0.124E+00  0.124E+00
 -11.303  0.124E+00  0.124E+00  0.124E+00  0.124E+00
 -11.253  0.125E+00  0.125E+00  0.125E+00  0.125E+00
 -11.203  0.126E+00  0.126E+00  0.126E+00  0.126E+00
 -11.153  0.127E+00  0.127E+00  0.127E+00  0.127E+00
 -11.103  0.128E+00  0.128E+00  0.128E+00  0.128E+00
 -11.053  0.129E+00  0.129E+00  0.129E+00  0.129E+00
 -11.003  0.131E+00  0.131E+00  0.131E+00  0.131E+00
 -10.953  0.133E+00  0.133E+00  0.133E+00  0.133E+00
 -10.903  0.135E+00  0.135E+00  0.135E+00  0.135E+00
 -10.853  0.138E+00  0.138E+00  0.138E+00  0.138E+00
 -10.803  0.142E+00  0.142E+00  0.142E+00  0.142E+00
 -10.753  0.149E+00  0.149E+00  0.149E+00  0.149E+00
 -10.703  0.162E+00  0.162E+00  0.162E+00  0.162E+00
 -10.653  0.181E+00  0.181E+00  0.181E+00  0.181E+00
 -10.603  0.201E+00  0.201E+00  0.201E+00  0.201E+00
 -10.553  0.209E+00  0.209E+00  0.209E+00  0.209E+00
 -10.503  0.195E+00  0.195E+00  0.195E+00  0.195E+00
 -10.453  0.166E+00  0.166E+00  0.166E+00  0.166E+00
 -10.403  0.136E+00  0.136E+00  0.136E+00  0.136E+00
 -10.353  0.113E+00  0.113E+00  0.113E+00  0.113E+00
 -10.303  0.975E-01  0.974E-01  0.975E-01  0.974E-01
 -10.253  0.863E-01  0.863E-01  0.863E-01  0.863E-01
 -10.203  0.771E-01  0.771E-01  0.771E-01  0.771E-01
 -10.153  0.688E-01  0.688E-01  0.688E-01  0.688E-01
 -10.103  0.613E-01  0.612E-01  0.613E-01  0.612E-01
 -10.053  0.543E-01  0.543E-01  0.543E-01  0.543E-01
 -10.003  0.479E-01  0.479E-01  0.479E-01  0.479E-01
  -9.953  0.419E-01  0.419E-01  0.419E-01  0.419E-01
  -9.903  0.363E-01  0.363E-01  0.363E-01  0.363E-01
  -9.853  0.309E-01  0.309E-01  0.309E-01  0.309E-01
  -9.803  0.258E-01  0.258E-01  0.258E-01  0.258E-01
  -9.753  0.208E-01  0.208E-01  0.208E-01  0.208E-01
  -9.703  0.158E-01  0.158E-01  0.158E-01  0.158E-01
  -9.653  0.110E-01  0.110E-01  0.110E-01  0.110E-01
  -9.603  0.664E-02  0.663E-02  0.664E-02  0.663E-02
  -9.553  0.386E-02  0.386E-02  0.386E-02  0.386E-02
  -9.503  0.357E-02  0.358E-02  0.357E-02  0.358E-02
  -9.453  0.589E-02  0.590E-02  0.589E-02  0.590E-02
  -9.403  0.100E-01  0.100E-01  0.100E-01  0.100E-01
  -9.353  0.149E-01  0.149E-01  0.149E-01  0.149E-01
  -9.303  0.200E-01  0.200E-01  0.200E-01  0.200E-01
  -9.253  0.251E-01  0.251E-01  0.251E-01  0.251E-01
  -9.203  0.303E-01  0.303E-01  0.303E-01  0.303E-01
  -9.153  0.358E-01  0.358E-01  0.358E-01  0.358E-01
  -9.103  0.427E-01  0.427E-01  0.427E-01  0.427E-01
  -9.053  0.543E-01  0.543E-01  0.543E-01  0.543E-01
  -9.003  0.761E-01  0.762E-01  0.761E-01  0.762E-01
  -8.953  0.109E+00  0.109E+00  0.109E+00  0.109E+00
  -8.903  0.141E+00  0.141E+00  0.141E+00  0.141E+00
  -8.853  0.156E+00  0.156E+00  0.156E+00  0.156E+00
  -8.803  0.147E+00  0.147E+00  0.147E+00  0.147E+00
  -8.753  0.126E+00  0.126E+00  0.126E+00  0.126E+00
  -8.703  0.107E+00  0.107E+00  0.107E+00  0.107E+00
  -8.653  0.953E-01  0.953E-01  0.953E-01  0.953E-01
  -8.603  0.887E-01  0.886E-01  0.887E-01  0.886E-01
  -8.553  0.842E-01  0.842E-01  0.842E-01  0.842E-01
  -8.503  0.806E-01  0.806E-01  0.806E-01  0.806E-01
  -8.453  0.773E-01  0.773E-01  0.773E-01  0.773E-01
  -8.403  0.744E-01  0.744E-01  0.744E-01  0.744E-01
  -8.353  0.718E-01  0.718E-01  0.718E-01  0.718E-01
  -8.303  0.694E-01  0.694E-01  0.694E-01  0.694E-01
  -8.253  0.673E-01  0.672E-01  0.673E-01  0.672E-01
  -8.203  0.652E-01  0.652E-01  0.652E-01  0.652E-01
  -8.153  0.634E-01  0.633E-01  0.634E-01  0.633E-01
  -8.103  0.616E-01  0.616E-01  0.616E-01  0.616E-01
  -8.053  0.599E-01  0.599E-01  0.599E-01  0.599E-01
  -8.003  0.584E-01  0.584E-01  0.584E-01  0.584E-01
  -7.953  0.569E-01  0.569E-01  0.569E-01  0.569E-01
  -7.903  0.555E-01  0.554E-01  0.555E-01  0.554E-01
  -7.853  0.541E-01  0.541E-01  0.541E-01  0.541E-01
  -7.803  0.528E-01  0.528E-01  0.528E-01  0.528E-01
  -7.753  0.516E-01  0.515E-01  0.516E-01  0.515E-01
  -7.703  0.503E-01  0.503E-01  0.503E-01  0.503E-01
  -7.653  0.492E-01  0.492E-01  0.492E-01  0.492E-01
  -7.603  0.481E-01  0.481E-01  0.481E-01  0.481E-01
  -7.553  0.470E-01  0.470E-01  0.470E-01  0.470E-01
  -7.503  0.460E-01  0.459E-01  0.460E-01  0.459E-01
  -7.453  0.450E-01  0.450E-01  0.450E-01  0.450E-01
  -7.403  0.439E-01  0.439E-01  0.439E-01  0.439E-01
  -7.353  0.430E-01  0.430E-01  0.430E-01  0.430E-01
  -7.303  0.421E-01  0.421E-01  0.421E-01  0.421E-01
  -7.253  0.412E-01  0.412E-01  0.412E-01  0.412E-01
  -7.203  0.403E-01  0.403E-01  0.403E-01  0.403E-01
  -7.153  0.395E-01  0.395E-01  0.395E-01  0.395E-01
  -7.103  0.386E-01  0.386E-01  0.386E-01  0.386E-01
  -7.053  0.379E-01  0.378E-01  0.379E-01  0.378E-01
  -7.003  0.371E-01  0.371E-01  0.371E-01  0.371E-01
  -6.953  0.363E-01  0.363E-01  0.363E-01  0.363E-01
  -6.903  0.355E-01  0.355E-01  0.355E-01  0.355E-01
  -6.853  0.349E-01  0.349E-01  0.349E-01  0.349E-01
  -6.803  0.341E-01  0.341E-01  0.341E-01  0.341E-01
  -6.753  0.334E-01  0.334E-01  0.334E-01  0.334E-01
  -6.703  0.328E-01  0.328E-01  0.328E-01  0.328E-01
  -6.653  0.321E-01  0.321E-01  0.321E-01  0.321E-01
  -6.603  0.314E-01  0.314E-01  0.314E-01  0.314E-01
  -6.553  0.309E-01  0.309E-01  0.309E-01  0.309E-01
  -6.503  0.302E-01  0.302E-01  0.302E-01  0.302E-01
  -6.453  0.295E-01  0.295E-01  0.295E-01  0.295E-01
  -6.403  0.291E-01  0.290E-01  0.291E-01  0.290E-01
  -6.353  0.285E-01  0.285E-01  0.285E-01  0.285E-01
  -6.303  0.278E-01  0.278E-01  0.278E-01  0.278E-01
  -6.253  0.273E-01  0.273E-01  0.273E-01  0.273E-01
  -6.203  0.269E-01  0.269E-01  0.269E-01  0.269E-01
  -6.153  0.263E-01  0.263E-01  0.263E-01  0.263E-01
  -6.103  0.261E-01  0.261E-01  0.261E-01  0.261E-01
  -6.053  0.261E-01  0.260E-01  0.261E-01  0.260E-01
  -6.003  0.259E-01  0.259E-01  0.259E-01  0.259E-01
  -5.953  0.258E-01  0.258E-01  0.258E-01  0.258E-01
  -5.903  0.259E-01  0.259E-01  0.259E-01  0.259E-01
  -5.853  0.259E-01  0.258E-01  0.259E-01  0.258E-01
  -5.803  0.257E-01  0.257E-01  0.257E-01  0.257E-01
  -5.753  0.257E-01  0.257E-01  0.257E-01  0.257E-01
  -5.703  0.258E-01  0.258E-01  0.258E-01  0.258E-01
  -5.653  0.256E-01  0.256E-01  0.256E-01  0.256E-01
  -5.603  0.256E-01  0.256E-01  0.256E-01  0.256E-01
  -5.553  0.257E-01  0.257E-01  0.257E-01  0.257E-01
  -5.503  0.257E-01  0.257E-01  0.257E-01  0.257E-01
  -5.453  0.257E-01  0.257E-01  0.257E-01  0.257E-01
  -5.403  0.258E-01  0.258E-01  0.258E-01  0.258E-01
  -5.353  0.259E-01  0.259E-01  0.259E-01  0.259E-01
  -5.303  0.260E-01  0.259E-01  0.260E-01  0.259E-01
  -5.253  0.261E-01  0.261E-01  0.261E-01  0.261E-01
  -5.203  0.262E-01  0.262E-01  0.262E-01  0.262E-01
  -5.153  0.262E-01  0.262E-01  0.262E-01  0.262E-01
  -5.103  0.266E-01  0.265E-01  0.266E-01  0.265E-01
  -5.053  0.293E-01  0.292E-01  0.293E-01  0.292E-01
  -5.003  0.369E-01  0.368E-01  0.369E-01  0.368E-01
  -4.953  0.486E-01  0.484E-01  0.486E-01  0.484E-01
  -4.903  0.562E-01  0.561E-01  0.562E-01  0.561E-01
  -4.853  0.507E-01  0.508E-01  0.507E-01  0.508E-01
  -4.803  0.334E-01  0.336E-01  0.334E-01  0.336E-01
  -4.753  0.159E-01  0.160E-01  0.159E-01  0.160E-01
  -4.703  0.650E-02  0.656E-02  0.650E-02  0.656E-02
  -4.653  0.463E-02  0.462E-02  0.463E-02  0.462E-02
  -4.603  0.548E-02  0.547E-02  0.548E-02  0.547E-02
  -4.553  0.621E-02  0.620E-02  0.621E-02  0.620E-02
  -4.503  0.635E-02  0.634E-02  0.635E-02  0.634E-02
  -4.453  0.636E-02  0.635E-02  0.636E-02  0.635E-02
  -4.403  0.677E-02  0.676E-02  0.677E-02  0.676E-02
  -4.353  0.781E-02  0.780E-02  0.781E-02  0.780E-02
  -4.303  0.932E-02  0.931E-02  0.932E-02  0.931E-02
  -4.253  0.108E-01  0.108E-01  0.108E-01  0.108E-01
  -4.203  0.119E-01  0.119E-01  0.119E-01  0.119E-01
  -4.153  0.123E-01  0.123E-01  0.123E-01  0.123E-01
  -4.103  0.121E-01  0.121E-01  0.121E-01  0.121E-01
  -4.053  0.114E-01  0.114E-01  0.114E-01  0.114E-01
  -4.003  0.108E-01  0.108E-01  0.108E-01  0.108E-01
  -3.953  0.105E-01  0.105E-01  0.105E-01  0.105E-01
  -3.903  0.106E-01  0.106E-01  0.106E-01  0.106E-01
  -3.853  0.108E-01  0.108E-01  0.108E-01  0.108E-01
  -3.803  0.110E-01  0.110E-01  0.110E-01  0.110E-01
  -3.753  0.112E-01  0.112E-01  0.112E-01  0.112E-01
  -3.703  0.112E-01  0.112E-01  0.112E-01  0.112E-01
  -3.653  0.112E-01  0.112E-01  0.112E-01  0.112E-01
  -3.603  0.113E-01  0.113E-01  0.113E-01  0.113E-01
  -3.553  0.113E-01  0.113E-01  0.113E-01  0.113E-01
  -3.503  0.113E-01  0.113E-01  0.113E-01  0.113E-01
  -3.453  0.113E-01  0.113E-01  0.113E-01  0.113E-01
  -3.403  0.114E-01  0.114E-01  0.114E-01  0.114E-01
  -3.353  0.115E-01  0.115E-01  0.115E-01  0.115E-01
  -3.303  0.116E-01  0.116E-01  0.116E-01  0.116E-01
  -3.253  0.117E-01  0.117E-01  0.117E-01  0.117E-01
  -3.203  0.119E-01  0.119E-01  0.119E-01  0.119E-01
  -3.153  0.122E-01  0.122E-01  0.122E-01  0.122E-01
  -3.103  0.125E-01  0.125E-01  0.125E-01  0.125E-01
  -3.053  0.129E-01  0.129E-01  0.129E-01  0.129E-01
  -3.003  0.137E-01  0.137E-01  0.137E-01  0.137E-01
  -2.953  0.152E-01  0.152E-01  0.152E-01  0.152E-01
  -2.903  0.176E-01  0.176E-01  0.176E-01  0.176E-01
  -2.853  0.202E-01  0.202E-01  0.202E-01  0.202E-01
  -2.803  0.214E-01  0.214E-01  0.214E-01  0.214E-01
  -2.753  0.200E-01  0.201E-01  0.200E-01  0.201E-01
  -2.703  0.167E-01  0.168E-01  0.167E-01  0.168E-01
  -2.653  0.133E-01  0.133E-01  0.133E-01  0.133E-01
  -2.603  0.107E-01  0.107E-01  0.107E-01  0.107E-01
  -2.553  0.904E-02  0.906E-02  0.904E-02  0.906E-02
  -2.503  0.794E-02  0.795E-02  0.794E-02  0.795E-02
  -2.453  0.708E-02  0.709E-02  0.708E-02  0.709E-02
  -2.403  0.632E-02  0.633E-02  0.632E-02  0.633E-02
  -2.353  0.565E-02  0.565E-02  0.565E-02  0.565E-02
  -2.303  0.503E-02  0.504E-02  0.503E-02  0.504E-02
  -2.253  0.446E-02  0.446E-02  0.446E-02  0.446E-02
  -2.203  0.393E-02  0.393E-02  0.393E-02  0.393E-02
  -2.153  0.342E-02  0.343E-02  0.342E-02  0.343E-02
  -2.103  0.294E-02  0.295E-02  0.294E-02  0.295E-02
  -2.053  0.247E-02  0.248E-02  0.247E-02  0.248E-02
  -2.003  0.201E-02  0.201E-02  0.201E-02  0.201E-02
  -1.953  0.153E-02  0.154E-02  0.153E-02  0.154E-02
  -1.903  0.106E-02  0.107E-02  0.106E-02  0.107E-02
  -1.853  0.642E-03  0.647E-03  0.642E-03  0.647E-03
  -1.803  0.382E-03  0.384E-03  0.382E-03  0.384E-03
  -1.753  0.382E-03  0.380E-03  0.382E-03  0.380E-03
  -1.703  0.652E-03  0.648E-03  0.652E-03  0.648E-03
  -1.653  0.111E-02  0.111E-02  0.111E-02  0.111E-02
  -1.603  0.166E-02  0.166E-02  0.166E-02  0.166E-02
  -1.553  0.225E-02  0.224E-02  0.225E-02  0.224E-02
  -1.503  0.286E-02  0.285E-02  0.286E-02  0.285E-02
  -1.453  0.348E-02  0.348E-02  0.348E-02  0.348E-02
  -1.403  0.419E-02  0.418E-02  0.419E-02  0.418E-02
  -1.353  0.528E-02  0.526E-02  0.528E-02  0.526E-02
  -1.303  0.750E-02  0.747E-02  0.750E-02  0.747E-02
  -1.253  0.116E-01  0.116E-01  0.116E-01  0.116E-01
  -1.203  0.172E-01  0.172E-01  0.172E-01  0.172E-01
  -1.153  0.220E-01  0.219E-01  0.220E-01  0.219E-01
  -1.103  0.237E-01  0.237E-01  0.237E-01  0.237E-01
  -1.053  0.226E-01  0.226E-01  0.226E-01  0.226E-01
  -1.003  0.207E-01  0.207E-01  0.207E-01  0.207E-01
  -0.953  0.197E-01  0.197E-01  0.197E-01  0.197E-01
  -0.903  0.197E-01  0.197E-01  0.197E-01  0.197E-01
  -0.853  0.203E-01  0.203E-01  0.203E-01  0.203E-01
  -0.803  0.212E-01  0.212E-01  0.212E-01  0.212E-01
  -0.753  0.232E-01  0.232E-01  0.232E-01  0.232E-01
  -0.703  0.284E-01  0.284E-01  0.284E-01  0.284E-01
  -0.653  0.390E-01  0.389E-01  0.390E-01  0.389E-01
  -0.603  0.537E-01  0.536E-01  0.537E-01  0.536E-01
  -0.553  0.674E-01  0.674E-01  0.674E-01  0.674E-01
  -0.503  0.755E-01  0.755E-01  0.755E-01  0.755E-01
  -0.453  0.777E-01  0.778E-01  0.777E-01  0.778E-01
  -0.403  0.770E-01  0.770E-01  0.770E-01  0.770E-01
  -0.353  0.758E-01  0.758E-01  0.758E-01  0.758E-01
  -0.303  0.749E-01  0.749E-01  0.749E-01  0.749E-01
  -0.253  0.744E-01  0.745E-01  0.744E-01  0.745E-01
  -0.203  0.740E-01  0.740E-01  0.740E-01  0.740E-01
  -0.153  0.732E-01  0.732E-01  0.732E-01  0.732E-01
  -0.103  0.728E-01  0.728E-01  0.728E-01  0.728E-01
  -0.053  0.731E-01  0.731E-01  0.731E-01  0.731E-01
  -0.003  0.744E-01  0.744E-01  0.744E-01  0.744E-01
   0.047  0.781E-01  0.780E-01  0.781E-01  0.780E-01
   0.097  0.838E-01  0.838E-01  0.838E-01  0.838E-01
   0.147  0.886E-01  0.886E-01  0.886E-01  0.886E-01
   0.197  0.906E-01  0.906E-01  0.906E-01  0.906E-01
   0.247  0.918E-01  0.918E-01  0.918E-01  0.918E-01
   0.297  0.943E-01  0.943E-01  0.943E-01  0.943E-01
   0.347  0.976E-01  0.976E-01  0.976E-01  0.976E-01
   0.397  0.102E+00  0.102E+00  0.102E+00  0.102E+00
   0.447  0.110E+00  0.110E+00  0.110E+00  0.110E+00
   0.497  0.120E+00  0.120E+00  0.120E+00  0.120E+00
   0.547  0.122E+00  0.122E+00  0.122E+00  0.122E+00
   0.597  0.113E+00  0.113E+00  0.113E+00  0.113E+00
   0.647  0.985E-01  0.986E-01  0.985E-01  0.986E-01
   0.697  0.870E-01  0.871E-01  0.870E-01  0.871E-01
   0.747  0.803E-01  0.803E-01  0.803E-01  0.803E-01
   0.797  0.741E-01  0.741E-01  0.741E-01  0.741E-01
   0.847  0.666E-01  0.667E-01  0.666E-01  0.667E-01
   0.897  0.602E-01  0.602E-01  0.602E-01  0.602E-01
   0.947  0.558E-01  0.559E-01  0.558E-01  0.559E-01
   0.997  0.512E-01  0.513E-01  0.512E-01  0.513E-01
   1.047  0.449E-01  0.450E-01  0.449E-01  0.450E-01
   1.097  0.399E-01  0.399E-01  0.399E-01  0.399E-01
   1.147  0.398E-01  0.398E-01  0.398E-01  0.398E-01
   1.197  0.441E-01  0.441E-01  0.441E-01  0.441E-01
   1.247  0.473E-01  0.473E-01  0.473E-01  0.473E-01
   1.297  0.465E-01  0.465E-01  0.465E-01  0.465E-01
   1.347  0.440E-01  0.441E-01  0.440E-01  0.441E-01
   1.397  0.440E-01  0.440E-01  0.440E-01  0.440E-01
   1.447  0.459E-01  0.459E-01  0.459E-01  0.459E-01
   1.497  0.462E-01  0.462E-01  0.462E-01  0.462E-01
   1.547  0.434E-01  0.434E-01  0.434E-01  0.434E-01
   1.597  0.404E-01  0.404E-01  0.404E-01  0.404E-01
   1.647  0.404E-01  0.405E-01  0.404E-01  0.405E-01
   1.697  0.429E-01  0.429E-01  0.429E-01  0.429E-01
   1.747  0.440E-01  0.440E-01  0.440E-01  0.440E-01
   1.797  0.415E-01  0.415E-01  0.415E-01  0.415E-01
   1.847  0.378E-01  0.378E-01  0.378E-01  0.378E-01
   1.897  0.376E-01  0.376E-01  0.376E-01  0.376E-01
   1.947  0.407E-01  0.407E-01  0.407E-01  0.407E-01
   1.997  0.421E-01  0.421E-01  0.421E-01  0.421E-01
   2.047  0.396E-01  0.396E-01  0.396E-01  0.396E-01
   2.097  0.366E-01  0.366E-01  0.366E-01  0.366E-01
   2.147  0.360E-01  0.360E-01  0.360E-01  0.360E-01
   2.197  0.378E-01  0.378E-01  0.378E-01  0.378E-01
   2.247  0.398E-01  0.398E-01  0.398E-01  0.398E-01
   2.297  0.397E-01  0.397E-01  0.397E-01  0.397E-01
   2.347  0.371E-01  0.371E-01  0.371E-01  0.371E-01
   2.397  0.353E-01  0.354E-01  0.353E-01  0.354E-01
   2.447  0.387E-01  0.387E-01  0.387E-01  0.387E-01
   2.497  0.449E-01  0.450E-01  0.449E-01  0.450E-01
   2.547  0.466E-01  0.466E-01  0.466E-01  0.466E-01
   2.597  0.406E-01  0.406E-01  0.406E-01  0.406E-01
   2.647  0.326E-01  0.326E-01  0.326E-01  0.326E-01
   2.697  0.299E-01  0.299E-01  0.299E-01  0.299E-01
   2.747  0.317E-01  0.317E-01  0.317E-01  0.317E-01
   2.797  0.316E-01  0.316E-01  0.316E-01  0.316E-01
   2.847  0.262E-01  0.262E-01  0.262E-01  0.262E-01
   2.897  0.194E-01  0.193E-01  0.194E-01  0.193E-01
   2.947  0.166E-01  0.166E-01  0.166E-01  0.166E-01
   2.997  0.186E-01  0.186E-01  0.186E-01  0.186E-01
   3.047  0.217E-01  0.217E-01  0.217E-01  0.217E-01
   3.097  0.227E-01  0.227E-01  0.227E-01  0.227E-01
   3.147  0.218E-01  0.218E-01  0.218E-01  0.218E-01
   3.197  0.215E-01  0.216E-01  0.215E-01  0.216E-01
   3.247  0.231E-01  0.231E-01  0.231E-01  0.231E-01
   3.297  0.238E-01  0.238E-01  0.238E-01  0.238E-01
   3.347  0.211E-01  0.211E-01  0.211E-01  0.211E-01
   3.397  0.174E-01  0.174E-01  0.174E-01  0.174E-01
   3.447  0.166E-01  0.166E-01  0.166E-01  0.166E-01
   3.497  0.181E-01  0.180E-01  0.181E-01  0.180E-01
   3.547  0.178E-01  0.178E-01  0.178E-01  0.178E-01
   3.597  0.149E-01  0.149E-01  0.149E-01  0.149E-01
   3.647  0.128E-01  0.128E-01  0.128E-01  0.128E-01
   3.697  0.133E-01  0.133E-01  0.133E-01  0.133E-01
   3.747  0.140E-01  0.140E-01  0.140E-01  0.140E-01
   3.797  0.121E-01  0.121E-01  0.121E-01  0.121E-01
   3.847  0.917E-02  0.917E-02  0.917E-02  0.917E-02
   3.897  0.835E-02  0.834E-02  0.835E-02  0.834E-02
   3.947  0.972E-02  0.971E-02  0.972E-02  0.971E-02
   3.997  0.102E-01  0.102E-01  0.102E-01  0.102E-01
   4.047  0.840E-02  0.840E-02  0.840E-02  0.840E-02
   4.097  0.633E-02  0.633E-02  0.633E-02  0.633E-02
   4.147  0.639E-02  0.639E-02  0.639E-02  0.639E-02
   4.197  0.772E-02  0.772E-02  0.772E-02  0.772E-02
   4.247  0.783E-02  0.784E-02  0.783E-02  0.784E-02
   4.297  0.629E-02  0.630E-02  0.629E-02  0.630E-02
   4.347  0.465E-02  0.466E-02  0.465E-02  0.466E-02
   4.397  0.374E-02  0.375E-02  0.374E-02  0.375E-02
   4.447  0.301E-02  0.302E-02  0.301E-02  0.302E-02
   4.497  0.204E-02  0.204E-02  0.204E-02  0.204E-02
   4.547  0.107E-02  0.107E-02  0.107E-02  0.107E-02
   4.597  0.400E-03  0.403E-03  0.400E-03  0.403E-03
   4.647  0.545E-04  0.556E-04  0.545E-04  0.556E-04
   4.697 -0.646E-04 -0.643E-04 -0.646E-04 -0.643E-04
   4.747 -0.645E-04 -0.645E-04 -0.645E-04 -0.645E-04
   4.797 -0.331E-04 -0.332E-04 -0.331E-04 -0.332E-04
   4.847 -0.114E-04 -0.114E-04 -0.114E-04 -0.114E-04
   4.897 -0.282E-05 -0.285E-05 -0.282E-05 -0.285E-05
   4.947 -0.535E-06 -0.546E-06 -0.535E-06 -0.546E-06
   4.997 -0.830E-07 -0.855E-07 -0.830E-07 -0.855E-07
   5.047 -0.113E-07 -0.117E-07 -0.113E-07 -0.117E-07
   5.097 -0.139E-08 -0.143E-08 -0.139E-08 -0.143E-08
   5.147 -0.151E-09 -0.155E-09 -0.151E-09 -0.155E-09
   5.197 -0.138E-10 -0.139E-10 -0.138E-10 -0.139E-10
   5.247 -0.101E-11 -0.101E-11 -0.101E-11 -0.101E-11
