# E (eV)   ldos(E)   pdos(E)   
 -14.086 -0.260E-04 -0.260E-04
 -14.036 -0.174E-03 -0.174E-03
 -13.986 -0.861E-03 -0.861E-03
 -13.936 -0.304E-02 -0.304E-02
 -13.886 -0.726E-02 -0.726E-02
 -13.836 -0.953E-02 -0.953E-02
 -13.786  0.342E-02  0.342E-02
 -13.736  0.482E-01  0.482E-01
 -13.686  0.125E+00  0.125E+00
 -13.636  0.206E+00  0.206E+00
 -13.586  0.260E+00  0.260E+00
 -13.536  0.278E+00  0.278E+00
 -13.486  0.276E+00  0.276E+00
 -13.436  0.269E+00  0.269E+00
 -13.386  0.263E+00  0.263E+00
 -13.336  0.260E+00  0.260E+00
 -13.286  0.258E+00  0.258E+00
 -13.236  0.256E+00  0.256E+00
 -13.186  0.255E+00  0.255E+00
 -13.136  0.253E+00  0.253E+00
 -13.086  0.252E+00  0.252E+00
 -13.036  0.251E+00  0.251E+00
 -12.986  0.251E+00  0.251E+00
 -12.936  0.250E+00  0.250E+00
 -12.886  0.250E+00  0.250E+00
 -12.836  0.250E+00  0.250E+00
 -12.786  0.250E+00  0.250E+00
 -12.736  0.250E+00  0.250E+00
 -12.686  0.250E+00  0.250E+00
 -12.636  0.251E+00  0.251E+00
 -12.586  0.252E+00  0.252E+00
 -12.536  0.252E+00  0.252E+00
 -12.486  0.254E+00  0.254E+00
 -12.436  0.255E+00  0.255E+00
 -12.386  0.257E+00  0.257E+00
 -12.336  0.259E+00  0.259E+00
 -12.286  0.262E+00  0.262E+00
 -12.236  0.265E+00  0.265E+00
 -12.186  0.268E+00  0.268E+00
 -12.136  0.273E+00  0.273E+00
 -12.086  0.278E+00  0.278E+00
 -12.036  0.283E+00  0.283E+00
 -11.986  0.292E+00  0.292E+00
 -11.936  0.302E+00  0.302E+00
 -11.886  0.320E+00  0.320E+00
 -11.836  0.355E+00  0.355E+00
 -11.786  0.400E+00  0.400E+00
 -11.736  0.435E+00  0.435E+00
 -11.686  0.436E+00  0.436E+00
 -11.636  0.390E+00  0.390E+00
 -11.586  0.320E+00  0.320E+00
 -11.536  0.260E+00  0.260E+00
 -11.486  0.217E+00  0.217E+00
 -11.436  0.187E+00  0.187E+00
 -11.386  0.164E+00  0.164E+00
 -11.336  0.145E+00  0.145E+00
 -11.286  0.127E+00  0.127E+00
 -11.236  0.110E+00  0.110E+00
 -11.186  0.951E-01  0.951E-01
 -11.136  0.802E-01  0.802E-01
 -11.086  0.662E-01  0.662E-01
 -11.036  0.528E-01  0.528E-01
 -10.986  0.391E-01  0.391E-01
 -10.936  0.259E-01  0.259E-01
 -10.886  0.152E-01  0.152E-01
 -10.836  0.958E-02  0.958E-02
 -10.786  0.114E-01  0.114E-01
 -10.736  0.201E-01  0.201E-01
 -10.686  0.329E-01  0.329E-01
 -10.636  0.474E-01  0.474E-01
 -10.586  0.624E-01  0.624E-01
 -10.536  0.780E-01  0.780E-01
 -10.486  0.954E-01  0.954E-01
 -10.436  0.118E+00  0.118E+00
 -10.386  0.154E+00  0.154E+00
 -10.336  0.213E+00  0.213E+00
 -10.286  0.289E+00  0.289E+00
 -10.236  0.353E+00  0.353E+00
 -10.186  0.372E+00  0.372E+00
 -10.136  0.344E+00  0.344E+00
 -10.086  0.297E+00  0.297E+00
 -10.036  0.259E+00  0.259E+00
  -9.986  0.237E+00  0.237E+00
  -9.936  0.224E+00  0.224E+00
  -9.886  0.216E+00  0.216E+00
  -9.836  0.210E+00  0.210E+00
  -9.786  0.204E+00  0.204E+00
  -9.736  0.200E+00  0.200E+00
  -9.686  0.196E+00  0.196E+00
  -9.636  0.193E+00  0.193E+00
  -9.586  0.192E+00  0.192E+00
  -9.536  0.190E+00  0.190E+00
  -9.486  0.190E+00  0.190E+00
  -9.436  0.190E+00  0.190E+00
  -9.386  0.189E+00  0.189E+00
  -9.336  0.192E+00  0.192E+00
  -9.286  0.209E+00  0.209E+00
  -9.236  0.263E+00  0.263E+00
  -9.186  0.356E+00  0.356E+00
  -9.136  0.429E+00  0.429E+00
  -9.086  0.399E+00  0.399E+00
  -9.036  0.259E+00  0.259E+00
  -8.986  0.981E-01  0.981E-01
  -8.936  0.302E-02  0.302E-02
  -8.886 -0.210E-01 -0.210E-01
  -8.836 -0.141E-01 -0.141E-01
  -8.786 -0.527E-02 -0.527E-02
  -8.736 -0.133E-02 -0.133E-02
  -8.686 -0.239E-03 -0.239E-03
  -8.636 -0.313E-04 -0.313E-04
  -8.586 -0.304E-05 -0.304E-05
  -8.536 -0.220E-06 -0.220E-06
  -8.486 -0.119E-07 -0.119E-07
  -8.436 -0.488E-09 -0.488E-09
  -8.386 -0.147E-10 -0.147E-10
  -8.336  0.000E+00  0.000E+00
  -8.286  0.000E+00  0.000E+00
  -8.236  0.000E+00  0.000E+00
  -8.186  0.000E+00  0.000E+00
  -8.136  0.000E+00  0.000E+00
  -8.086  0.000E+00  0.000E+00
  -8.036  0.000E+00  0.000E+00
  -7.986  0.000E+00  0.000E+00
  -7.936  0.000E+00  0.000E+00
  -7.886  0.000E+00  0.000E+00
  -7.836  0.000E+00  0.000E+00
  -7.786  0.000E+00  0.000E+00
  -7.736  0.000E+00  0.000E+00
  -7.686  0.000E+00  0.000E+00
  -7.636 -0.495E-13 -0.495E-13
  -7.586 -0.200E-11 -0.200E-11
  -7.536 -0.531E-10 -0.531E-10
  -7.486 -0.106E-08 -0.106E-08
  -7.436 -0.161E-07 -0.161E-07
  -7.386 -0.184E-06 -0.184E-06
  -7.336 -0.158E-05 -0.158E-05
  -7.286 -0.102E-04 -0.102E-04
  -7.236 -0.486E-04 -0.486E-04
  -7.186 -0.168E-03 -0.168E-03
  -7.136 -0.402E-03 -0.402E-03
  -7.086 -0.566E-03 -0.566E-03
  -7.036 -0.167E-04 -0.167E-04
  -6.986  0.216E-02  0.216E-02
  -6.936  0.630E-02  0.630E-02
  -6.886  0.117E-01  0.117E-01
  -6.836  0.170E-01  0.170E-01
  -6.786  0.221E-01  0.221E-01
  -6.736  0.274E-01  0.274E-01
  -6.686  0.332E-01  0.332E-01
  -6.636  0.384E-01  0.384E-01
  -6.586  0.408E-01  0.408E-01
  -6.536  0.397E-01  0.397E-01
  -6.486  0.371E-01  0.371E-01
  -6.436  0.351E-01  0.351E-01
  -6.386  0.343E-01  0.343E-01
  -6.336  0.341E-01  0.341E-01
  -6.286  0.349E-01  0.349E-01
  -6.236  0.381E-01  0.381E-01
  -6.186  0.439E-01  0.439E-01
  -6.136  0.506E-01  0.506E-01
  -6.086  0.561E-01  0.561E-01
  -6.036  0.609E-01  0.609E-01
  -5.986  0.677E-01  0.677E-01
  -5.936  0.752E-01  0.752E-01
  -5.886  0.761E-01  0.761E-01
  -5.836  0.651E-01  0.651E-01
  -5.786  0.478E-01  0.478E-01
  -5.736  0.355E-01  0.355E-01
  -5.686  0.321E-01  0.321E-01
  -5.636  0.322E-01  0.322E-01
  -5.586  0.308E-01  0.308E-01
  -5.536  0.290E-01  0.290E-01
  -5.486  0.294E-01  0.294E-01
  -5.436  0.309E-01  0.309E-01
  -5.386  0.304E-01  0.304E-01
  -5.336  0.277E-01  0.277E-01
  -5.286  0.258E-01  0.258E-01
  -5.236  0.266E-01  0.266E-01
  -5.186  0.279E-01  0.279E-01
  -5.136  0.272E-01  0.272E-01
  -5.086  0.246E-01  0.246E-01
  -5.036  0.223E-01  0.223E-01
  -4.986  0.222E-01  0.222E-01
  -4.936  0.234E-01  0.234E-01
  -4.886  0.232E-01  0.232E-01
  -4.836  0.202E-01  0.202E-01
  -4.786  0.167E-01  0.167E-01
  -4.736  0.155E-01  0.155E-01
  -4.686  0.161E-01  0.161E-01
  -4.636  0.165E-01  0.165E-01
  -4.586  0.149E-01  0.149E-01
  -4.536  0.120E-01  0.120E-01
  -4.486  0.102E-01  0.102E-01
  -4.436  0.105E-01  0.105E-01
  -4.386  0.115E-01  0.115E-01
  -4.336  0.110E-01  0.110E-01
  -4.286  0.893E-02  0.893E-02
  -4.236  0.695E-02  0.695E-02
  -4.186  0.648E-02  0.648E-02
  -4.136  0.715E-02  0.715E-02
  -4.086  0.731E-02  0.731E-02
  -4.036  0.610E-02  0.610E-02
  -3.986  0.449E-02  0.449E-02
  -3.936  0.380E-02  0.380E-02
  -3.886  0.400E-02  0.400E-02
  -3.836  0.401E-02  0.401E-02
  -3.786  0.329E-02  0.329E-02
  -3.736  0.235E-02  0.235E-02
  -3.686  0.185E-02  0.185E-02
  -3.636  0.170E-02  0.170E-02
  -3.586  0.141E-02  0.141E-02
  -3.536  0.919E-03  0.919E-03
  -3.486  0.485E-03  0.485E-03
  -3.436  0.218E-03  0.218E-03
  -3.386  0.688E-04  0.688E-04
  -3.336 -0.665E-05 -0.665E-05
  -3.286 -0.264E-04 -0.264E-04
  -3.236 -0.182E-04 -0.182E-04
  -3.186 -0.742E-05 -0.742E-05
  -3.136 -0.204E-05 -0.204E-05
  -3.086 -0.398E-06 -0.398E-06
  -3.036 -0.564E-07 -0.564E-07
  -2.986 -0.589E-08 -0.589E-08
  -2.936 -0.459E-09 -0.459E-09
  -2.886 -0.268E-10 -0.268E-10
  -2.836 -0.118E-11 -0.118E-11
  -2.786 -0.394E-13 -0.394E-13
  -2.736 -0.174E-15 -0.174E-15
  -2.686 -0.408E-20 -0.408E-20
  -2.636  0.000E+00  0.000E+00
  -2.586  0.000E+00  0.000E+00
  -2.536  0.000E+00  0.000E+00
  -2.486  0.000E+00  0.000E+00
  -2.436  0.000E+00  0.000E+00
  -2.386  0.000E+00  0.000E+00
  -2.336  0.000E+00  0.000E+00
  -2.286  0.000E+00  0.000E+00
  -2.236  0.000E+00  0.000E+00
  -2.186  0.000E+00  0.000E+00
  -2.136  0.000E+00  0.000E+00
  -2.086  0.000E+00  0.000E+00
  -2.036  0.000E+00  0.000E+00
  -1.986  0.000E+00  0.000E+00
  -1.936 -0.139E-12 -0.139E-12
  -1.886 -0.809E-11 -0.809E-11
  -1.836 -0.237E-09 -0.237E-09
  -1.786 -0.516E-08 -0.516E-08
  -1.736 -0.850E-07 -0.850E-07
  -1.686 -0.106E-05 -0.106E-05
  -1.636 -0.988E-05 -0.988E-05
  -1.586 -0.691E-04 -0.691E-04
  -1.536 -0.357E-03 -0.357E-03
  -1.486 -0.134E-02 -0.134E-02
  -1.436 -0.344E-02 -0.344E-02
  -1.386 -0.517E-02 -0.517E-02
  -1.336 -0.185E-03 -0.185E-03
  -1.286  0.208E-01  0.208E-01
  -1.236  0.593E-01  0.593E-01
  -1.186  0.101E+00  0.101E+00
  -1.136  0.130E+00  0.130E+00
  -1.086  0.144E+00  0.144E+00
  -1.036  0.148E+00  0.148E+00
  -0.986  0.142E+00  0.142E+00
  -0.936  0.127E+00  0.127E+00
  -0.886  0.119E+00  0.119E+00
  -0.836  0.129E+00  0.129E+00
  -0.786  0.142E+00  0.142E+00
  -0.736  0.139E+00  0.139E+00
  -0.686  0.120E+00  0.120E+00
  -0.636  0.110E+00  0.110E+00
  -0.586  0.124E+00  0.124E+00
  -0.536  0.152E+00  0.152E+00
  -0.486  0.165E+00  0.165E+00
  -0.436  0.145E+00  0.145E+00
  -0.386  0.104E+00  0.104E+00
  -0.336  0.712E-01  0.712E-01
  -0.286  0.641E-01  0.641E-01
  -0.236  0.810E-01  0.810E-01
  -0.186  0.998E-01  0.998E-01
  -0.136  0.976E-01  0.976E-01
  -0.086  0.731E-01  0.731E-01
  -0.036  0.446E-01  0.446E-01
   0.014  0.302E-01  0.302E-01
   0.064  0.361E-01  0.361E-01
   0.114  0.547E-01  0.547E-01
   0.164  0.720E-01  0.720E-01
   0.214  0.834E-01  0.834E-01
   0.264  0.100E+00  0.100E+00
   0.314  0.131E+00  0.131E+00
   0.364  0.167E+00  0.167E+00
   0.414  0.187E+00  0.187E+00
   0.464  0.185E+00  0.185E+00
   0.514  0.170E+00  0.170E+00
   0.564  0.155E+00  0.155E+00
   0.614  0.144E+00  0.144E+00
   0.664  0.135E+00  0.135E+00
   0.714  0.126E+00  0.126E+00
   0.764  0.123E+00  0.123E+00
   0.814  0.126E+00  0.126E+00
   0.864  0.135E+00  0.135E+00
   0.914  0.147E+00  0.147E+00
   0.964  0.161E+00  0.161E+00
   1.014  0.175E+00  0.175E+00
   1.064  0.184E+00  0.184E+00
   1.114  0.199E+00  0.199E+00
   1.164  0.253E+00  0.253E+00
   1.214  0.368E+00  0.368E+00
   1.264  0.495E+00  0.495E+00
   1.314  0.536E+00  0.536E+00
   1.364  0.449E+00  0.449E+00
   1.414  0.292E+00  0.292E+00
   1.464  0.159E+00  0.159E+00
   1.514  0.903E-01  0.903E-01
   1.564  0.678E-01  0.678E-01
   1.614  0.616E-01  0.616E-01
   1.664  0.580E-01  0.580E-01
   1.714  0.561E-01  0.561E-01
   1.764  0.588E-01  0.588E-01
   1.814  0.670E-01  0.670E-01
   1.864  0.766E-01  0.766E-01
   1.914  0.812E-01  0.812E-01
   1.964  0.788E-01  0.788E-01
   2.014  0.729E-01  0.729E-01
   2.064  0.672E-01  0.672E-01
   2.114  0.626E-01  0.626E-01
   2.164  0.581E-01  0.581E-01
   2.214  0.518E-01  0.518E-01
   2.264  0.450E-01  0.450E-01
   2.314  0.453E-01  0.453E-01
   2.364  0.580E-01  0.580E-01
   2.414  0.756E-01  0.756E-01
   2.464  0.827E-01  0.827E-01
   2.514  0.717E-01  0.717E-01
   2.564  0.501E-01  0.501E-01
   2.614  0.323E-01  0.323E-01
   2.664  0.275E-01  0.275E-01
   2.714  0.343E-01  0.343E-01
   2.764  0.422E-01  0.422E-01
   2.814  0.422E-01  0.422E-01
   2.864  0.351E-01  0.351E-01
   2.914  0.275E-01  0.275E-01
   2.964  0.229E-01  0.229E-01
   3.014  0.218E-01  0.218E-01
   3.064  0.245E-01  0.245E-01
   3.114  0.295E-01  0.295E-01
   3.164  0.323E-01  0.323E-01
   3.214  0.298E-01  0.298E-01
   3.264  0.234E-01  0.234E-01
   3.314  0.166E-01  0.166E-01
   3.364  0.115E-01  0.115E-01
   3.414  0.910E-02  0.910E-02
   3.464  0.110E-01  0.110E-01
   3.514  0.179E-01  0.179E-01
   3.564  0.258E-01  0.258E-01
   3.614  0.294E-01  0.294E-01
   3.664  0.264E-01  0.264E-01
   3.714  0.193E-01  0.193E-01
   3.764  0.117E-01  0.117E-01
   3.814  0.684E-02  0.684E-02
   3.864  0.605E-02  0.605E-02
   3.914  0.880E-02  0.880E-02
   3.964  0.129E-01  0.129E-01
   4.014  0.154E-01  0.154E-01
   4.064  0.144E-01  0.144E-01
   4.114  0.106E-01  0.106E-01
   4.164  0.691E-02  0.691E-02
   4.214  0.484E-02  0.484E-02
   4.264  0.371E-02  0.371E-02
   4.314  0.233E-02  0.233E-02
   4.364  0.844E-03  0.844E-03
   4.414 -0.447E-04 -0.447E-04
   4.464 -0.245E-03 -0.245E-03
   4.514 -0.151E-03 -0.151E-03
   4.564 -0.540E-04 -0.540E-04
   4.614 -0.130E-04 -0.130E-04
   4.664 -0.224E-05 -0.224E-05
   4.714 -0.281E-06 -0.281E-06
